#   nfi    time(ps)        ekinc        T_cell(K)     Tion(K)          etot               enthal               econs               econt          Volume        Pressure(GPa)        EXX               EVDW
     10  2.418884E-04  3.060132E+01  0.000000E+00  0.000000E+00        -54.59796964        -54.59796964        -54.59796964        -23.99665400  3.051201E+02    -772.45822
     20  4.837769E-04  5.627211E+00  0.000000E+00  0.000000E+00        -65.84559152        -65.84559152        -65.84559152        -60.21838015  3.051201E+02      32.93578
     30  7.256653E-04  2.842510E+00  0.000000E+00  0.000000E+00        -70.70572816        -70.70572816        -70.70572816        -67.86321774  3.051201E+02     196.96697
     40  9.675537E-04  1.536227E+00  0.000000E+00  0.000000E+00        -73.85830610        -73.85830610        -73.85830610        -72.32207866  3.051201E+02     269.70853
     50  1.209442E-03  1.108371E+00  0.000000E+00  0.000000E+00        -75.80623707        -75.80623707        -75.80623707        -74.69786564  3.051201E+02     212.21578
     60  1.451331E-03  8.943176E-01  0.000000E+00  0.000000E+00        -77.08912177        -77.08912177        -77.08912177        -76.19480415  3.051201E+02     151.47635
     70  1.693219E-03  6.748871E-01  0.000000E+00  0.000000E+00        -77.98944422        -77.98944422        -77.98944422        -77.31455714  3.051201E+02     120.05731
     80  1.935107E-03  4.608572E-01  0.000000E+00  0.000000E+00        -78.66012930        -78.66012930        -78.66012930        -78.19927215  3.051201E+02     107.94540
     90  2.176996E-03  3.066101E-01  0.000000E+00  0.000000E+00        -79.18315575        -79.18315575        -79.18315575        -78.87654569  3.051201E+02     104.37878
    100  2.418884E-03  2.139109E-01  0.000000E+00  0.000000E+00        -79.60486976        -79.60486976        -79.60486976        -79.39095890  3.051201E+02     104.08387
    110  2.660773E-03  1.599026E-01  0.000000E+00  0.000000E+00        -79.95379073        -79.95379073        -79.95379073        -79.79388812  3.051201E+02     104.85393
    120  2.902661E-03  1.267194E-01  0.000000E+00  0.000000E+00        -80.24855493        -80.24855493        -80.24855493        -80.12183554  3.051201E+02     105.72306
    130  3.144550E-03  1.048635E-01  0.000000E+00  0.000000E+00        -80.50161821        -80.50161821        -80.50161821        -80.39675475  3.051201E+02     106.27234
    140  3.386438E-03  8.972140E-02  0.000000E+00  0.000000E+00        -80.72140503        -80.72140503        -80.72140503        -80.63168363  3.051201E+02     106.37827
    150  3.628326E-03  7.902158E-02  0.000000E+00  0.000000E+00        -80.91378348        -80.91378348        -80.91378348        -80.83476189  3.051201E+02     106.08188
    160  3.870215E-03  7.157702E-02  0.000000E+00  0.000000E+00        -81.08303558        -81.08303558        -81.08303558        -81.01145856  3.051201E+02     105.50361
    170  4.112103E-03  6.667964E-02  0.000000E+00  0.000000E+00        -81.23245433        -81.23245433        -81.23245433        -81.16577469  3.051201E+02     104.78600
    180  4.353992E-03  6.375625E-02  0.000000E+00  0.000000E+00        -81.36469506        -81.36469506        -81.36469506        -81.30093881  3.051201E+02     104.05982
    190  4.595880E-03  6.215707E-02  0.000000E+00  0.000000E+00        -81.48197017        -81.48197017        -81.48197017        -81.41981311  3.051201E+02     103.42682
    200  4.837769E-03  6.106700E-02  0.000000E+00  0.000000E+00        -81.58616003        -81.58616003        -81.58616003        -81.52509304  3.051201E+02     102.95482
    210  5.079657E-03  5.958065E-02  0.000000E+00  0.000000E+00        -81.67887966        -81.67887966        -81.67887966        -81.61929901  3.051201E+02     102.67937
    220  5.321546E-03  5.694158E-02  0.000000E+00  0.000000E+00        -81.76152171        -81.76152171        -81.76152171        -81.70458013  3.051201E+02     102.60922
    230  5.563434E-03  5.282633E-02  0.000000E+00  0.000000E+00        -81.83529069        -81.83529069        -81.83529069        -81.78246435  3.051201E+02     102.73269
    240  5.805322E-03  4.746170E-02  0.000000E+00  0.000000E+00        -81.90123077        -81.90123077        -81.90123077        -81.85376907  3.051201E+02     103.02512
    250  6.047211E-03  4.146811E-02  0.000000E+00  0.000000E+00        -81.96025032        -81.96025032        -81.96025032        -81.91878222  3.051201E+02     103.45481
    260  6.289099E-03  3.554252E-02  0.000000E+00  0.000000E+00        -82.01314307        -82.01314307        -82.01314307        -81.97760056  3.051201E+02     103.98752
    270  6.530988E-03  3.019981E-02  0.000000E+00  0.000000E+00        -82.06060682        -82.06060682        -82.06060682        -82.03040702  3.051201E+02     104.58992
    280  6.772876E-03  2.568608E-02  0.000000E+00  0.000000E+00        -82.10325983        -82.10325983        -82.10325983        -82.07757375  3.051201E+02     105.23173
    290  7.014765E-03  2.202804E-02  0.000000E+00  0.000000E+00        -82.14165284        -82.14165284        -82.14165284        -82.11962480  3.051201E+02     105.88717
    300  7.256653E-03  1.912837E-02  0.000000E+00  0.000000E+00        -82.17627971        -82.17627971        -82.17627971        -82.15715134  3.051201E+02     106.53542
    310  7.498541E-03  1.684521E-02  0.000000E+00  0.000000E+00        -82.20758496        -82.20758496        -82.20758496        -82.19073975  3.051201E+02     107.16064
    320  7.740430E-03  1.503934E-02  0.000000E+00  0.000000E+00        -82.23597049        -82.23597049        -82.23597049        -82.22093115  3.051201E+02     107.75158
    330  7.982318E-03  1.359381E-02  0.000000E+00  0.000000E+00        -82.26180079        -82.26180079        -82.26180079        -82.24820698  3.051201E+02     108.30101
    340  8.224207E-03  1.241802E-02  0.000000E+00  0.000000E+00        -82.28540619        -82.28540619        -82.28540619        -82.27298818  3.051201E+02     108.80522
    350  8.466095E-03  1.144519E-02  0.000000E+00  0.000000E+00        -82.30708622        -82.30708622        -82.30708622        -82.29564103  3.051201E+02     109.26335
    360  8.707984E-03  1.062728E-02  0.000000E+00  0.000000E+00        -82.32711260        -82.32711260        -82.32711260        -82.31648532  3.051201E+02     109.67684
    370  8.949872E-03  9.930133E-03  0.000000E+00  0.000000E+00        -82.34573163        -82.34573163        -82.34573163        -82.33580149  3.051201E+02     110.04908
    380  9.191760E-03  9.329600E-03  0.000000E+00  0.000000E+00        -82.36316675        -82.36316675        -82.36316675        -82.35383715  3.051201E+02     110.38500
    390  9.433649E-03  8.808501E-03  0.000000E+00  0.000000E+00        -82.37962091        -82.37962091        -82.37962091        -82.37081241  3.051201E+02     110.69063
    400  9.675537E-03  8.354516E-03  0.000000E+00  0.000000E+00        -82.39527879        -82.39527879        -82.39527879        -82.38692427  3.051201E+02     110.97291
    410  9.917426E-03  7.958706E-03  0.000000E+00  0.000000E+00        -82.41030893        -82.41030893        -82.41030893        -82.40235023  3.051201E+02     111.23956
    420  1.015931E-02  7.614477E-03  0.000000E+00  0.000000E+00        -82.42486583        -82.42486583        -82.42486583        -82.41725136  3.051201E+02     111.49892
    430  1.040120E-02  7.316849E-03  0.000000E+00  0.000000E+00        -82.43909163        -82.43909163        -82.43909163        -82.43177478  3.051201E+02     111.75993
    440  1.064309E-02  7.061976E-03  0.000000E+00  0.000000E+00        -82.45311768        -82.45311768        -82.45311768        -82.44605570  3.051201E+02     112.03197
    450  1.088498E-02  6.846805E-03  0.000000E+00  0.000000E+00        -82.46706594        -82.46706594        -82.46706594        -82.46021914  3.051201E+02     112.32496
    460  1.112687E-02  6.668833E-03  0.000000E+00  0.000000E+00        -82.48105014        -82.48105014        -82.48105014        -82.47438131  3.051201E+02     112.64922
    470  1.136876E-02  6.525916E-03  0.000000E+00  0.000000E+00        -82.49517671        -82.49517671        -82.49517671        -82.48865079  3.051201E+02     113.01550
    480  1.161064E-02  6.416117E-03  0.000000E+00  0.000000E+00        -82.50954540        -82.50954540        -82.50954540        -82.50312929  3.051201E+02     113.43493
    490  1.185253E-02  6.337576E-03  0.000000E+00  0.000000E+00        -82.52424966        -82.52424966        -82.52424966        -82.51791208  3.051201E+02     113.91892
    500  1.209442E-02  6.288401E-03  0.000000E+00  0.000000E+00        -82.53937656        -82.53937656        -82.53937656        -82.53308816  3.051201E+02     114.47906
#   nfi    time(ps)        ekinc        T_cell(K)     Tion(K)          etot               enthal               econs               econt          Volume        Pressure(GPa)        EXX               EVDW
     20  2.418884E-03  1.014874E+00  0.000000E+00  9.668321E+05        -92.73633913        -92.73633913        -83.55100290        -82.53612930  3.051201E+02     922.89460
     40  4.837769E-03  2.052759E+00  0.000000E+00  1.041917E+06        -94.54888280        -94.54888280        -84.65020274        -82.59744386  3.051201E+02     816.06605
     60  7.256653E-03  3.364079E+00  0.000000E+00  8.978607E+05        -94.52797376        -94.52797376        -85.99789709        -82.63381854  3.051201E+02     625.10217
     80  9.675537E-03  4.313104E+00  0.000000E+00  8.117055E+05        -94.67323196        -94.67323196        -86.96166764        -82.64856344  3.051201E+02     605.89801
    100  1.209442E-02  5.174229E+00  0.000000E+00  7.169526E+05        -94.65250391        -94.65250391        -87.84113414        -82.66690479  3.051201E+02     560.95782
    120  1.451331E-02  5.740167E+00  0.000000E+00  6.438156E+05        -94.52997936        -94.52997936        -88.41344373        -82.67327666  3.051201E+02     464.97393
    140  1.693219E-02  6.240823E+00  0.000000E+00  5.853133E+05        -94.47923259        -94.47923259        -88.91849480        -82.67767135  3.051201E+02     485.66987
    160  1.935107E-02  6.506479E+00  0.000000E+00  5.421076E+05        -94.33398732        -94.33398732        -89.18372303        -82.67724426  3.051201E+02     429.75593
    180  2.176996E-02  7.047757E+00  0.000000E+00  4.831610E+05        -94.31546296        -94.31546296        -89.72521758        -82.67746038  3.051201E+02     433.02487
    200  2.418884E-02  7.167545E+00  0.000000E+00  4.519936E+05        -94.14199523        -94.14199523        -89.84785481        -82.68031020  3.051201E+02     460.49248
    220  2.660773E-02  7.411163E+00  0.000000E+00  2.701244E+05        -92.65639764        -92.65639764        -90.09009489        -82.67893157  3.051201E+02     558.97660
    240  2.902661E-02  7.449048E+00  0.000000E+00  1.608733E+04        -90.27183072        -90.27183072        -90.11899392        -82.66994604  3.051201E+02     629.01644
    260  3.144550E-02  7.584929E+00  0.000000E+00  3.302560E+05        -93.39396606        -93.39396606        -90.25638629        -82.67145686  3.051201E+02     497.89288
    280  3.386438E-02  7.778248E+00  0.000000E+00  3.669401E+05        -93.94255721        -93.94255721        -90.45646296        -82.67821480  3.051201E+02     354.66819
    300  3.628326E-02  8.264011E+00  0.000000E+00  3.367961E+05        -94.14298529        -94.14298529        -90.94327211        -82.67926116  3.051201E+02     337.81823
    320  3.870215E-02  8.446353E+00  0.000000E+00  3.118802E+05        -94.08951076        -94.08951076        -91.12650939        -82.68015597  3.051201E+02     349.27761
    340  4.112103E-02  8.520380E+00  0.000000E+00  3.076358E+05        -94.12379045        -94.12379045        -91.20111293        -82.68073302  3.051201E+02     324.00712
    360  4.353992E-02  8.626995E+00  0.000000E+00  2.939976E+05        -94.09372573        -94.09372573        -91.30061757        -82.67362245  3.051201E+02     300.10517
    380  4.595880E-02  8.736784E+00  0.000000E+00  2.831947E+05        -94.11136529        -94.11136529        -91.42088907        -82.68410515  3.051201E+02     306.26532
    400  4.837769E-02  8.790528E+00  0.000000E+00  2.780573E+05        -94.10666262        -94.10666262        -91.46499454        -82.67446702  3.051201E+02     288.84464
    420  5.079657E-02  8.803163E+00  0.000000E+00  2.666122E+05        -94.01364203        -94.01364203        -91.48070696        -82.67754397  3.051201E+02     283.77505
    440  5.321546E-02  8.829983E+00  0.000000E+00  2.440490E+05        -93.82557446        -93.82557446        -91.50700040        -82.67701703  3.051201E+02     332.12546
    460  5.563434E-02  8.858179E+00  0.000000E+00  2.336942E+05        -93.75621655        -93.75621655        -91.53601720        -82.67783812  3.051201E+02     311.11703
    480  5.805322E-02  8.910615E+00  0.000000E+00  2.286631E+05        -93.76830078        -93.76830078        -91.59589924        -82.68528446  3.051201E+02     320.65208
    500  6.047211E-02  8.959847E+00  0.000000E+00  2.327777E+05        -93.85469860        -93.85469860        -91.64320659        -82.68335980  3.051201E+02     283.61492
    520  6.289099E-02  8.949106E+00  0.000000E+00  2.350227E+05        -93.85871477        -93.85871477        -91.62589387        -82.67678823  3.051201E+02     264.54551
    540  6.530988E-02  8.975985E+00  0.000000E+00  2.273136E+05        -93.81002429        -93.81002429        -91.65044362        -82.67445851  3.051201E+02     284.11747
    560  6.772876E-02  8.992904E+00  0.000000E+00  1.916033E+05        -93.49336277        -93.49336277        -91.67304564        -82.68014186  3.051201E+02     308.20460
    580  7.014765E-02  8.986549E+00  0.000000E+00  8.713557E+04        -92.49305232        -92.49305232        -91.66522555        -82.67867669  3.051201E+02     435.53336
    600  7.256653E-02  8.950838E+00  0.000000E+00  9.247356E+04        -92.50270257        -92.50270257        -91.62416252        -82.67332500  3.051201E+02     470.20852
    620  7.498541E-02  9.025964E+00  0.000000E+00  1.859352E+05        -93.46861438        -93.46861438        -91.70214740        -82.67618357  3.051201E+02     330.62567
    640  7.740430E-02  9.097449E+00  0.000000E+00  2.128646E+05        -93.79085124        -93.79085124        -91.76854245        -82.67109301  3.051201E+02     277.52287
    660  7.982318E-02  9.057767E+00  0.000000E+00  2.185824E+05        -93.80764132        -93.80764132        -91.73101079        -82.67324389  3.051201E+02     280.06847
    680  8.224207E-02  9.078988E+00  0.000000E+00  2.169382E+05        -93.81443311        -93.81443311        -91.75342304        -82.67443497  3.051201E+02     279.84152
    700  8.466095E-02  9.178360E+00  0.000000E+00  2.083216E+05        -93.83236380        -93.83236380        -91.85321551        -82.67485552  3.051201E+02     281.28184
    720  8.707984E-02  9.150374E+00  0.000000E+00  2.012287E+05        -93.73211102        -93.73211102        -91.82034858        -82.66997495  3.051201E+02     279.40074
    740  8.949872E-02  9.166129E+00  0.000000E+00  1.981097E+05        -93.72447628        -93.72447628        -91.84234603        -82.67621698  3.051201E+02     253.40228
    760  9.191760E-02  9.102271E+00  0.000000E+00  1.823577E+05        -93.50656479        -93.50656479        -91.77408574        -82.67181437  3.051201E+02     297.77498
    780  9.433649E-02  9.122648E+00  0.000000E+00  1.680066E+05        -93.39885302        -93.39885302        -91.80271502        -82.68006720  3.051201E+02     309.11289
    800  9.675537E-02  9.133013E+00  0.000000E+00  1.612247E+05        -93.34822017        -93.34822017        -91.81651353        -82.68350082  3.051201E+02     330.47406
    820  9.917426E-02  9.151707E+00  0.000000E+00  1.700086E+05        -93.44569027        -93.44569027        -91.83053251        -82.67882594  3.051201E+02     308.56066
    840  1.015931E-01  9.184783E+00  0.000000E+00  1.832355E+05        -93.60261481        -93.60261481        -91.86179564        -82.67701267  3.051201E+02     278.95177
    860  1.040120E-01  9.148961E+00  0.000000E+00  1.872590E+05        -93.60363785        -93.60363785        -91.82459388        -82.67563259  3.051201E+02     266.05509
    880  1.064309E-01  9.238449E+00  0.000000E+00  1.751072E+05        -93.57945346        -93.57945346        -91.91585743        -82.67740830  3.051201E+02     283.73786
    900  1.088498E-01  9.171575E+00  0.000000E+00  1.743437E+05        -93.50425734        -93.50425734        -91.84791416        -82.67633946  3.051201E+02     299.10768
    920  1.112687E-01  9.232533E+00  0.000000E+00  1.697590E+05        -93.51992419        -93.51992419        -91.90713827        -82.67460555  3.051201E+02     299.57545
    940  1.136876E-01  9.213395E+00  0.000000E+00  1.712548E+05        -93.51706487        -93.51706487        -91.89006824        -82.67667312  3.051201E+02     284.62304
    960  1.161064E-01  9.237362E+00  0.000000E+00  1.695479E+05        -93.52500974        -93.52500974        -91.91422860        -82.67686643  3.051201E+02     290.59497
    980  1.185253E-01  9.248293E+00  0.000000E+00  1.588601E+05        -93.43501272        -93.43501272        -91.92577118        -82.67747785  3.051201E+02     289.35438
   1000  1.209442E-01  9.198651E+00  0.000000E+00  1.567517E+05        -93.36498408        -93.36498408        -91.87577258        -82.67712187  3.051201E+02     286.69273
   1020  1.233631E-01  9.213223E+00  0.000000E+00  1.638106E+05        -93.44546018        -93.44546018        -91.88918650        -82.67596327  3.051201E+02     307.59730
   1040  1.257820E-01  9.247301E+00  0.000000E+00  1.656757E+05        -93.49509265        -93.49509265        -91.92109952        -82.67379835  3.051201E+02     304.35993
   1060  1.282009E-01  9.297900E+00  0.000000E+00  1.627101E+05        -93.52176266        -93.52176266        -91.97594371        -82.67804401  3.051201E+02     275.81296
   1080  1.306198E-01  9.237979E+00  0.000000E+00  1.421503E+05        -93.26572895        -93.26572895        -91.91523779        -82.67725869  3.051201E+02     278.10974
   1100  1.330386E-01  9.218109E+00  0.000000E+00  1.243760E+05        -93.08705185        -93.08705185        -91.90542458        -82.68731577  3.051201E+02     309.71073
   1120  1.354575E-01  9.221809E+00  0.000000E+00  1.272037E+05        -93.11293546        -93.11293546        -91.90444371        -82.68263427  3.051201E+02     298.27185
   1140  1.378764E-01  9.220477E+00  0.000000E+00  1.461060E+05        -93.28515284        -93.28515284        -91.89708100        -82.67660449  3.051201E+02     280.34709
   1160  1.402953E-01  9.192603E+00  0.000000E+00  1.588034E+05        -93.36748335        -93.36748335        -91.85877975        -82.66617654  3.051201E+02     254.12155
   1180  1.427142E-01  9.254521E+00  0.000000E+00  1.626566E+05        -93.47298715        -93.47298715        -91.92767670        -82.67315564  3.051201E+02     240.12679
   1200  1.451331E-01  9.257525E+00  0.000000E+00  1.633569E+05        -93.48122764        -93.48122764        -91.92926385        -82.67173909  3.051201E+02     280.89818
   1220  1.475519E-01  9.237420E+00  0.000000E+00  1.588028E+05        -93.41348961        -93.41348961        -91.90479213        -82.66737188  3.051201E+02     284.16704
   1240  1.499708E-01  9.310846E+00  0.000000E+00  1.547821E+05        -93.45356787        -93.45356787        -91.98306861        -82.67222232  3.051201E+02     261.35652
   1260  1.523897E-01  9.316296E+00  0.000000E+00  1.522707E+05        -93.42794023        -93.42794023        -91.98130106        -82.66500528  3.051201E+02     266.96492
   1280  1.548086E-01  9.326394E+00  0.000000E+00  1.478634E+05        -93.40500708        -93.40500708        -92.00023882        -82.67384478  3.051201E+02     282.98981
   1300  1.572275E-01  9.332650E+00  0.000000E+00  1.376872E+05        -93.30789097        -93.30789097        -91.99980143        -82.66715162  3.051201E+02     284.70410
   1320  1.596464E-01  9.350410E+00  0.000000E+00  1.063158E+05        -93.03001554        -93.03001554        -92.01996786        -82.66955765  3.051201E+02     309.15830
   1340  1.620652E-01  9.356993E+00  0.000000E+00  5.167096E+04        -92.51836579        -92.51836579        -92.02746860        -82.67047515  3.051201E+02     350.09413
   1360  1.644841E-01  9.302929E+00  0.000000E+00  3.580320E+04        -92.31613507        -92.31613507        -91.97598866        -82.67305963  3.051201E+02     391.34552
   1380  1.669030E-01  9.292214E+00  0.000000E+00  8.549706E+04        -92.77050250        -92.77050250        -91.95824230        -82.66602786  3.051201E+02     335.93133
   1400  1.693219E-01  9.333374E+00  0.000000E+00  1.177039E+05        -93.11768560        -93.11768560        -91.99944637        -82.66607234  3.051201E+02     279.11739
   1420  1.717408E-01  9.336122E+00  0.000000E+00  1.301793E+05        -93.24257012        -93.24257012        -92.00580827        -82.66968661  3.051201E+02     291.45611
   1440  1.741597E-01  9.331177E+00  0.000000E+00  1.304402E+05        -93.24039790        -93.24039790        -92.00115785        -82.66998059  3.051201E+02     284.15393
   1460  1.765786E-01  9.305574E+00  0.000000E+00  1.296755E+05        -93.20768508        -93.20768508        -91.97570973        -82.67013619  3.051201E+02     262.06433
   1480  1.789974E-01  9.407475E+00  0.000000E+00  1.260747E+05        -93.27854234        -93.27854234        -92.08077667        -82.67330209  3.051201E+02     246.31885
   1500  1.814163E-01  9.351573E+00  0.000000E+00  1.238518E+05        -93.20220016        -93.20220016        -92.02555294        -82.67397946  3.051201E+02     266.28878
   1520  1.838352E-01  9.349904E+00  0.000000E+00  1.226797E+05        -93.18124701        -93.18124701        -92.01573481        -82.66583057  3.051201E+02     274.43880
   1540  1.862541E-01  9.329038E+00  0.000000E+00  1.239160E+05        -93.17193176        -93.17193176        -91.99467494        -82.66563689  3.051201E+02     295.38509
   1560  1.886730E-01  9.423996E+00  0.000000E+00  1.283388E+05        -93.31676154        -93.31676154        -92.09748580        -82.67349017  3.051201E+02     274.08042
   1580  1.910919E-01  9.295918E+00  0.000000E+00  1.359614E+05        -93.24771925        -93.24771925        -91.95602540        -82.66010737  3.051201E+02     258.70051
   1600  1.935107E-01  9.374381E+00  0.000000E+00  1.371158E+05        -93.34245683        -93.34245683        -92.03979589        -82.66541490  3.051201E+02     273.99391
   1620  1.959296E-01  9.392668E+00  0.000000E+00  1.299106E+05        -93.29417272        -93.29417272        -92.05996363        -82.66729543  3.051201E+02     278.10581
   1640  1.983485E-01  9.349455E+00  0.000000E+00  1.190928E+05        -93.14415931        -93.14415931        -92.01272443        -82.66326938  3.051201E+02     278.59367
   1660  2.007674E-01  9.337366E+00  0.000000E+00  9.613570E+04        -92.91474720        -92.91474720        -92.00141522        -82.66404930  3.051201E+02     303.65657
   1680  2.031863E-01  9.362101E+00  0.000000E+00  7.795513E+04        -92.76519171        -92.76519171        -92.02458316        -82.66248206  3.051201E+02     330.15341
   1700  2.056052E-01  9.370131E+00  0.000000E+00  8.652294E+04        -92.86125878        -92.86125878        -92.03925226        -82.66912159  3.051201E+02     304.68757
   1720  2.080241E-01  9.326580E+00  0.000000E+00  1.058325E+05        -92.99160067        -92.99160067        -91.98614442        -82.65956444  3.051201E+02     285.45104
   1740  2.104429E-01  9.412988E+00  0.000000E+00  1.161802E+05        -93.18931831        -93.18931831        -92.08555432        -82.67256583  3.051201E+02     254.33337
   1760  2.128618E-01  9.350528E+00  0.000000E+00  1.186120E+05        -93.13923054        -93.13923054        -92.01236360        -82.66183563  3.051201E+02     233.17658
   1780  2.152807E-01  9.372046E+00  0.000000E+00  1.155581E+05        -93.13117913        -93.13117913        -92.03332524        -82.66127885  3.051201E+02     222.41310
   1800  2.176996E-01  9.403575E+00  0.000000E+00  1.142143E+05        -93.15730157        -93.15730157        -92.07221511        -82.66863979  3.051201E+02     264.07032
   1820  2.201185E-01  9.385324E+00  0.000000E+00  1.163922E+05        -93.15045699        -93.15045699        -92.04467912        -82.65935485  3.051201E+02     283.82842
   1840  2.225374E-01  9.462879E+00  0.000000E+00  1.151603E+05        -93.23078166        -93.23078166        -92.13670700        -82.67382836  3.051201E+02     249.05890
   1860  2.249562E-01  9.440221E+00  0.000000E+00  1.147436E+05        -93.18792251        -93.18792251        -92.09780721        -82.65758645  3.051201E+02     237.01504
   1880  2.273751E-01  9.456858E+00  0.000000E+00  1.135056E+05        -93.19876677        -93.19876677        -92.12041248        -82.66355483  3.051201E+02     272.32798
   1900  2.297940E-01  9.448988E+00  0.000000E+00  1.134345E+05        -93.19154375        -93.19154375        -92.11386587        -82.66487768  3.051201E+02     250.33006
   1920  2.322129E-01  9.425302E+00  0.000000E+00  1.122000E+05        -93.15231792        -93.15231792        -92.08636798        -82.66106608  3.051201E+02     244.66544
   1940  2.346318E-01  9.422256E+00  0.000000E+00  1.139467E+05        -93.17593951        -93.17593951        -92.09339522        -82.67113964  3.051201E+02     249.91334
   1960  2.370507E-01  9.455116E+00  0.000000E+00  1.115698E+05        -93.17930578        -93.17930578        -92.11934332        -82.66422705  3.051201E+02     260.78223
   1980  2.394695E-01  9.463892E+00  0.000000E+00  1.121512E+05        -93.19216112        -93.19216112        -92.12667446        -82.66278254  3.051201E+02     243.68036
   2000  2.418884E-01  9.423022E+00  0.000000E+00  1.088110E+05        -93.12457602        -93.12457602        -92.09082281        -82.66780119  3.051201E+02     269.89717
